Comprimento	Intensity
178.13	1298.41
178.35	1298.41
178.57	1298.41
178.78	1300.46
179.00	1320.94
179.22	1456.11
179.44	1521.64
179.66	1456.11
179.87	1538.02
180.09	1546.22
180.31	1630.18
180.53	1538.02
180.75	1433.58
180.96	1439.72
181.18	1402.86
181.40	1447.91
181.62	1488.87
181.84	1472.49
182.05	1431.53
182.27	1480.68
182.49	1472.49
182.71	1427.43
182.92	1605.61
183.14	1435.63
183.36	1546.22
183.58	1439.72
183.80	1630.18
184.01	1452.01
184.23	1505.26
184.45	1570.79
184.67	1529.83
184.89	1488.87
185.10	1538.02
185.32	1525.74
185.54	1513.45
185.76	1538.02
185.97	1513.45
186.19	1521.64
186.41	1554.41
186.63	1505.26
186.84	1431.53
187.06	1529.83
187.28	1660.90
187.50	1478.63
187.72	1564.65
187.93	1581.03
188.15	1464.30
188.37	1474.54
188.59	1476.59
188.80	1542.12
189.02	1513.45
189.24	1531.88
189.46	1523.69
189.67	1562.60
189.89	1480.68
190.11	1507.30
190.33	1619.94
190.54	1607.66
190.76	1521.64
190.98	1456.11
191.20	1472.49
191.41	1484.78
191.63	1538.02
191.85	1460.20
192.07	1515.50
192.28	1511.40
192.50	1538.02
192.72	1521.64
192.94	1574.89
193.15	1488.87
193.37	1597.42
193.59	1632.23
193.81	1558.50
194.02	1499.11
194.24	1472.49
194.46	1497.07
194.67	1521.64
194.89	1376.24
195.11	1558.50
195.33	1556.46
195.54	1603.56
195.76	1482.73
195.98	1472.49
196.20	1513.45
196.41	1460.20
196.63	1521.64
196.85	1564.65
197.06	1427.43
197.28	1505.26
197.50	1378.28
197.72	1452.01
197.93	1456.11
198.15	1538.02
198.37	1464.30
198.58	1513.45
198.80	1548.26
199.02	1529.83
199.24	1523.69
199.45	1515.50
199.67	1454.06
199.89	1515.50
200.10	1419.24
200.32	1458.15
200.54	1390.57
200.76	1449.96
200.97	1521.64
201.19	1460.20
201.41	1472.49
201.62	1505.26
201.84	1472.49
202.06	1497.07
202.28	1521.64
202.49	1558.50
202.71	1544.17
202.93	1556.46
203.14	1449.96
203.36	1507.30
203.58	1398.76
203.79	1474.54
204.01	1505.26
204.23	1505.26
204.44	1585.13
204.66	1499.11
204.88	1558.50
205.10	1452.01
205.31	1499.11
205.53	1427.43
205.75	1568.74
205.96	1499.11
206.18	1482.73
206.40	1439.72
206.61	1386.47
206.83	1456.11
207.05	1417.19
207.26	1513.45
207.48	1480.68
207.70	1529.83
207.91	1497.07
208.13	1392.62
208.35	1456.11
208.56	1447.91
208.78	1497.07
209.00	1538.02
209.21	1533.93
209.43	1513.45
209.65	1525.74
209.86	1517.54
210.08	1583.08
210.30	1513.45
210.51	1581.03
210.73	1441.77
210.95	1480.68
211.16	1443.82
211.38	1497.07
211.60	1525.74
211.81	1531.88
212.03	1546.22
212.25	1529.83
212.46	1480.68
212.68	1619.94
212.90	1538.02
213.11	1556.46
213.33	1513.45
213.55	1554.41
213.76	1523.69
213.98	1497.07
214.20	1464.30
214.41	1497.07
214.63	1572.84
214.84	1538.02
215.06	1529.83
215.28	1574.89
215.49	1531.88
215.71	1542.12
215.93	1669.09
216.14	1400.81
216.36	1546.22
216.58	1513.45
216.79	1538.02
217.01	1546.22
217.22	1492.97
217.44	1632.23
217.66	1529.83
217.87	1583.08
218.09	1390.57
218.31	1439.72
218.52	1546.22
218.74	1423.34
218.95	1505.26
219.17	1425.39
219.39	1497.07
219.60	1570.79
219.82	1505.26
220.04	1476.59
220.25	1497.07
220.47	1464.30
220.68	1581.03
220.90	1583.08
221.12	1513.45
221.33	1447.91
221.55	1538.02
221.77	1554.41
221.98	1523.69
222.20	1458.15
222.41	1546.22
222.63	1523.69
222.85	1490.92
223.06	1513.45
223.28	1497.07
223.49	1542.12
223.71	1529.83
223.93	1548.26
224.14	1497.07
224.36	1611.75
224.57	1460.20
224.79	1529.83
225.01	1482.73
225.22	1476.59
225.44	1417.19
225.65	1578.98
225.87	1554.41
226.09	1529.83
226.30	1572.84
226.52	1519.59
226.73	1456.11
226.95	1638.38
227.17	1488.87
227.38	1470.44
227.60	1540.07
227.81	1431.53
228.03	1513.45
228.24	1554.41
228.46	1542.12
228.68	1402.86
228.89	1556.46
229.11	1462.25
229.32	1554.41
229.54	1431.53
229.75	1540.07
229.97	1521.64
230.19	1538.02
230.40	1456.11
230.62	1484.78
230.83	1583.08
231.05	1562.60
231.26	1464.30
231.48	1538.02
231.70	1517.54
231.91	1439.72
232.13	1538.02
232.34	1525.74
232.56	1466.35
232.77	1538.02
232.99	1488.87
233.21	1753.06
233.42	1456.11
233.64	1525.74
233.85	1390.57
234.07	1447.91
234.28	1550.31
234.50	1490.92
234.71	1458.15
234.93	1603.56
235.15	1456.11
235.36	1497.07
235.58	1597.42
235.79	1425.39
236.01	1538.02
236.22	1499.11
236.44	1609.70
236.65	1521.64
236.87	1597.42
237.08	1466.35
237.30	1550.31
237.52	1531.88
237.73	1398.76
237.95	1490.92
238.16	1447.91
238.38	1566.70
238.59	1505.26
238.81	1556.46
239.02	1505.26
239.24	1591.27
239.45	1497.07
239.67	1480.68
239.88	1546.22
240.10	1587.18
240.31	1490.92
240.53	1447.91
240.74	1464.30
240.96	1488.87
241.18	1472.49
241.39	1464.30
241.61	1554.41
241.82	1447.91
242.04	1472.49
242.25	1507.30
242.47	1423.34
242.68	1505.26
242.90	1509.35
243.11	1417.19
243.33	1490.92
243.54	1630.18
243.76	1452.01
243.97	1562.60
244.19	1521.64
244.40	1497.07
244.62	1497.07
244.83	1488.87
245.05	1507.30
245.26	1419.24
245.48	1492.97
245.69	1562.60
245.91	1472.49
246.12	1423.34
246.34	1546.22
246.55	1570.79
246.77	1390.57
246.98	1488.87
247.20	1497.07
247.41	1464.30
247.63	1546.22
247.84	1488.87
248.06	1605.61
248.27	1456.11
248.49	1509.35
248.70	1546.22
248.92	1382.38
249.13	1464.30
249.35	1359.85
249.56	1531.88
249.78	1417.19
249.99	1458.15
250.21	1570.79
250.42	1439.72
250.64	1464.30
250.85	1529.83
251.06	1619.94
251.28	1513.45
251.49	1460.20
251.71	1529.83
251.92	1464.30
252.14	1488.87
252.35	1464.30
252.57	1492.97
252.78	1578.98
253.00	1415.15
253.21	1515.50
253.43	1490.92
253.64	1572.84
253.86	1484.78
254.07	1468.39
254.28	1423.34
254.50	1521.64
254.71	1441.77
254.93	1441.77
255.14	1488.87
255.36	1521.64
255.57	1497.07
255.79	1466.35
256.00	1517.54
256.22	1513.45
256.43	1546.22
256.64	1636.33
256.86	1607.66
257.07	1480.68
257.29	1458.15
257.50	1411.05
257.72	1550.31
257.93	1521.64
258.15	1570.79
258.36	1396.71
258.57	1490.92
258.79	1533.93
259.00	1480.68
259.22	1480.68
259.43	1415.15
259.65	1550.31
259.86	1472.49
260.08	1398.76
260.29	1671.14
260.50	1468.39
260.72	1857.51
260.93	1449.96
261.15	1507.30
261.36	1472.49
261.58	1464.30
261.79	1482.73
262.00	1558.50
262.22	1636.33
262.43	1562.60
262.65	1490.92
262.86	1546.22
263.07	1546.22
263.29	1562.60
263.50	1497.07
263.72	1542.12
263.93	1517.54
264.15	1480.68
264.36	1417.19
264.57	1433.58
264.79	1619.94
265.00	1443.82
265.22	1464.30
265.43	1546.22
265.64	1472.49
265.86	1390.57
266.07	1476.59
266.29	1460.20
266.50	1419.24
266.71	1597.42
266.93	1474.54
267.14	1517.54
267.36	1538.02
267.57	1472.49
267.78	1480.68
268.00	1566.70
268.21	1570.79
268.43	1513.45
268.64	1474.54
268.85	1456.11
269.07	1497.07
269.28	1550.31
269.50	1431.53
269.71	1449.96
269.92	1482.73
270.14	1603.56
270.35	1439.72
270.56	1538.02
270.78	1488.87
270.99	1548.26
271.21	1554.41
271.42	1476.59
271.63	1521.64
271.85	1505.26
272.06	1505.26
272.27	1507.30
272.49	1523.69
272.70	1538.02
272.92	1501.16
273.13	1492.97
273.34	1564.65
273.56	1423.34
273.77	1615.85
273.98	1546.22
274.20	1550.31
274.41	1447.91
274.63	1509.35
274.84	1409.00
275.05	1490.92
275.27	1480.68
275.48	1578.98
275.69	1546.22
275.91	1488.87
276.12	1540.07
276.33	1562.60
276.55	1464.30
276.76	1480.68
276.97	1605.61
277.19	1523.69
277.40	1419.24
277.61	1472.49
277.83	1546.22
278.04	1441.77
278.26	1531.88
278.47	1558.50
278.68	1574.89
278.90	1513.45
279.11	1456.11
279.32	1531.88
279.54	1570.79
279.75	1523.69
279.96	1513.45
280.18	1570.79
280.39	1619.94
280.60	1550.31
280.82	1603.56
281.03	1433.58
281.24	1660.90
281.46	1578.98
281.67	1507.30
281.88	1497.07
282.10	1497.07
282.31	1488.87
282.52	1476.59
282.74	1447.91
282.95	1521.64
283.16	1554.41
283.37	1521.64
283.59	1449.96
283.80	1507.30
284.01	1578.98
284.23	1406.95
284.44	1636.33
284.65	1689.57
284.87	1423.34
285.08	1460.20
285.29	1531.88
285.51	1581.03
285.72	1488.87
285.93	1578.98
286.15	1581.03
286.36	1497.07
286.57	1523.69
286.78	1497.07
287.00	1497.07
287.21	1497.07
287.42	1443.82
287.64	1488.87
287.85	1538.02
288.06	1497.07
288.28	1505.26
288.49	1488.87
288.70	1513.45
288.91	1476.59
289.13	1595.37
289.34	1570.79
289.55	1423.34
289.77	1447.91
289.98	1521.64
290.19	1548.26
290.40	1439.72
290.62	1499.11
290.83	1431.53
291.04	1464.30
291.26	1417.19
291.47	1531.88
291.68	1482.73
291.89	1480.68
292.11	1595.37
292.32	1570.79
292.53	1619.94
292.74	1554.41
292.96	1439.72
293.17	1581.03
293.38	1546.22
293.60	1542.12
293.81	1505.26
294.02	1333.23
294.23	1419.24
294.45	1525.74
294.66	1554.41
294.87	1521.64
295.08	1398.76
295.30	1556.46
295.51	1513.45
295.72	1636.33
295.93	1511.40
296.15	1546.22
296.36	1482.73
296.57	1529.83
296.78	1523.69
297.00	1474.54
297.21	1464.30
297.42	1570.79
297.63	1497.07
297.85	1562.60
298.06	1552.36
298.27	1439.72
298.48	1529.83
298.70	1546.22
298.91	1701.86
299.12	1464.30
299.33	1509.35
299.55	1466.35
299.76	1439.72
299.97	1497.07
300.18	1425.39
300.40	1417.19
300.61	1464.30
300.82	1443.82
301.03	1470.44
301.24	1425.39
301.46	1472.49
301.67	1488.87
301.88	1513.45
302.09	1460.20
302.31	1447.91
302.52	1505.26
302.73	1570.79
302.94	1464.30
303.15	1482.73
303.37	1488.87
303.58	1431.53
303.79	1562.60
304.00	1505.26
304.22	1523.69
304.43	1636.33
304.64	1570.79
304.85	1447.91
305.06	1589.22
305.28	1554.41
305.49	1595.37
305.70	1490.92
305.91	1406.95
306.12	1554.41
306.34	1574.89
306.55	1495.02
306.76	1513.45
306.97	1669.09
307.18	1476.59
307.40	1472.49
307.61	1482.73
307.82	1533.93
308.03	1538.02
308.24	1482.73
308.46	1488.87
308.67	1488.87
308.88	1497.07
309.09	1570.79
309.30	1546.22
309.52	1507.30
309.73	1538.02
309.94	1406.95
310.15	1425.39
310.36	1501.16
310.57	1505.26
310.79	1497.07
311.00	1562.60
311.21	1382.38
311.42	1513.45
311.63	1546.22
311.85	1468.39
312.06	1492.97
312.27	1507.30
312.48	1540.07
312.69	1398.76
312.90	1591.27
313.12	1523.69
313.33	1499.11
313.54	1554.41
313.75	1406.95
313.96	1556.46
314.17	1488.87
314.39	1501.16
314.60	1525.74
314.81	1497.07
315.02	1357.80
315.23	1439.72
315.44	1509.35
315.65	1583.08
315.87	1505.26
316.08	1540.07
316.29	1425.39
316.50	1497.07
316.71	1525.74
316.92	1431.53
317.14	1488.87
317.35	1480.68
317.56	1458.15
317.77	1644.52
317.98	1492.97
318.19	1538.02
318.40	1509.35
318.62	1546.22
318.83	1583.08
319.04	1484.78
319.25	1509.35
319.46	1566.70
319.67	1542.12
319.88	1570.79
320.09	1540.07
320.31	1497.07
320.52	1507.30
320.73	1607.66
320.94	1513.45
321.15	1431.53
321.36	1464.30
321.57	1603.56
321.78	1513.45
322.00	1529.83
322.21	1513.45
322.42	1464.30
322.63	1554.41
322.84	1472.49
323.05	1513.45
323.26	1417.19
323.47	1583.08
323.69	1452.01
323.90	1497.07
324.11	1484.78
324.32	1484.78
324.53	1425.39
324.74	1488.87
324.95	1570.79
325.16	1466.35
325.37	1492.97
325.59	1560.55
325.80	1490.92
326.01	1449.96
326.22	1581.03
326.43	1517.54
326.64	1583.08
326.85	1554.41
327.06	1425.39
327.27	1515.50
327.48	1644.52
327.69	1505.26
327.91	1443.82
328.12	1460.20
328.33	1460.20
328.54	1398.76
328.75	1560.55
328.96	1505.26
329.17	1497.07
329.38	1497.07
329.59	1441.77
329.80	1875.94
330.01	1603.56
330.23	1546.22
330.44	1521.64
330.65	1449.96
330.86	1464.30
331.07	1523.69
331.28	1546.22
331.49	1480.68
331.70	1497.07
331.91	1417.19
332.12	1554.41
332.33	1529.83
332.54	1615.85
332.75	1562.60
332.96	1464.30
333.17	1525.74
333.39	1556.46
333.60	1474.54
333.81	1488.87
334.02	1488.87
334.23	1554.41
334.44	1423.34
334.65	1464.30
334.86	1570.79
335.07	1538.02
335.28	1431.53
335.49	1572.84
335.70	1472.49
335.91	1499.11
336.12	1548.26
336.33	1546.22
336.54	1513.45
336.75	1464.30
336.96	1540.07
337.17	1550.31
337.39	1497.07
337.60	1542.12
337.81	1603.56
338.02	1542.12
338.23	1480.68
338.44	1423.34
338.65	1480.68
338.86	1435.63
339.07	1476.59
339.28	1521.64
339.49	1603.56
339.70	1538.02
339.91	1529.83
340.12	1529.83
340.33	1447.91
340.54	1476.59
340.75	1439.72
340.96	1488.87
341.17	1488.87
341.38	1425.39
341.59	1546.22
341.80	1677.29
342.01	1505.26
342.22	1413.10
342.43	1505.26
342.64	1517.54
342.85	1513.45
343.06	1507.30
343.27	1529.83
343.48	1605.61
343.69	1542.12
343.90	1458.15
344.11	1490.92
344.32	1447.91
344.53	1458.15
344.74	1554.41
344.95	1460.20
345.16	1472.49
345.37	1390.57
345.58	1521.64
345.79	1435.63
346.00	1523.69
346.21	1472.49
346.42	1490.92
346.63	1505.26
346.84	1548.26
347.05	1501.16
347.26	1458.15
347.47	1460.20
347.68	1538.02
347.89	1488.87
348.10	1492.97
348.31	1441.77
348.52	1447.91
348.73	1497.07
348.94	1509.35
349.15	1538.02
349.36	1482.73
349.57	1425.39
349.78	1533.93
349.99	1480.68
350.20	1578.98
350.41	1480.68
350.62	1366.00
350.83	1546.22
351.04	1409.00
351.25	1499.11
351.46	1466.35
351.67	1423.34
351.88	1464.30
352.09	1497.07
352.30	1554.41
352.50	1538.02
352.71	1415.15
352.92	1468.39
353.13	1474.54
353.34	1415.15
353.55	1562.60
353.76	1488.87
353.97	1521.64
354.18	1562.60
354.39	1415.15
354.60	1619.94
354.81	1562.60
355.02	1556.46
355.23	1505.26
355.44	1513.45
355.65	1441.77
355.86	1488.87
356.07	1474.54
356.28	1540.07
356.48	1468.39
356.69	1480.68
356.90	1431.53
357.11	1484.78
357.32	1497.07
357.53	1556.46
357.74	1529.83
357.95	1509.35
358.16	1464.30
358.37	1419.24
358.58	1447.91
358.79	1445.87
359.00	1554.41
359.21	1480.68
359.41	1540.07
359.62	1566.70
359.83	1484.78
360.04	1492.97
360.25	1562.60
360.46	1531.88
360.67	1402.86
360.88	1474.54
361.09	1550.31
361.30	1521.64
361.51	1482.73
361.72	1456.11
361.92	1603.56
362.13	1415.15
362.34	1482.73
362.55	1472.49
362.76	1439.72
362.97	1513.45
363.18	1480.68
363.39	1476.59
363.60	1523.69
363.81	1464.30
364.01	1550.31
364.22	1535.98
364.43	1472.49
364.64	1458.15
364.85	1562.60
365.06	1466.35
365.27	1488.87
365.48	1513.45
365.69	1480.68
365.89	1447.91
366.10	1431.53
366.31	1488.87
366.52	1447.91
366.73	1523.69
366.94	1652.71
367.15	1466.35
367.36	1480.68
367.57	1599.46
367.77	1562.60
367.98	1505.26
368.19	1513.45
368.40	1531.88
368.61	1525.74
368.82	1468.39
369.03	1499.11
369.23	1636.33
369.44	1392.62
369.65	1474.54
369.86	1480.68
370.07	1515.50
370.28	1554.41
370.49	1482.73
370.70	1546.22
370.90	1529.83
371.11	1509.35
371.32	1458.15
371.53	1482.73
371.74	1368.04
371.95	1560.55
372.16	1439.72
372.36	1497.07
372.57	1538.02
372.78	1492.97
372.99	1433.58
373.20	1472.49
373.41	1374.19
373.61	1509.35
373.82	1523.69
374.03	1497.07
374.24	1546.22
374.45	1566.70
374.66	1562.60
374.86	1603.56
375.07	1439.72
375.28	1621.99
375.49	1431.53
375.70	1546.22
375.91	1538.02
376.11	1439.72
376.32	1513.45
376.53	1540.07
376.74	1570.79
376.95	1988.58
377.16	1619.94
377.36	1521.64
377.57	1556.46
377.78	1464.30
377.99	1558.50
378.20	1513.45
378.40	1538.02
378.61	1517.54
378.82	1468.39
379.03	1570.79
379.24	1632.23
379.45	1394.67
379.65	1474.54
379.86	1492.97
380.07	1409.00
380.28	1525.74
380.49	1513.45
380.69	1570.79
380.90	1681.38
381.11	1466.35
381.32	1554.41
381.53	1595.37
381.73	1507.30
381.94	1505.26
382.15	1439.72
382.36	1540.07
382.57	1554.41
382.77	1484.78
382.98	1435.63
383.19	1488.87
383.40	1538.02
383.60	1492.97
383.81	1484.78
384.02	1587.18
384.23	1464.30
384.44	1464.30
384.64	1529.83
384.85	1531.88
385.06	1456.11
385.27	1488.87
385.48	1529.83
385.68	1488.87
385.89	1464.30
386.10	1521.64
386.31	1488.87
386.51	1538.02
386.72	1464.30
386.93	1521.64
387.14	1505.26
387.34	1439.72
387.55	1431.53
387.76	1482.73
387.97	1458.15
388.17	1538.02
388.38	1550.31
388.59	1529.83
388.80	1449.96
389.01	1482.73
389.21	1472.49
389.42	1562.60
389.63	1507.30
389.84	1431.53
390.04	1517.54
390.25	1449.96
390.46	1542.12
390.67	1497.07
390.87	1488.87
391.08	1507.30
391.29	1546.22
391.49	1597.42
391.70	1415.15
391.91	1562.60
392.12	1556.46
392.32	1505.26
392.53	1546.22
392.74	1406.95
392.95	1392.62
393.15	1519.59
393.36	1507.30
393.57	1509.35
393.78	1476.59
393.98	1595.37
394.19	1542.12
394.40	1624.04
394.60	1495.02
394.81	1415.15
395.02	1447.91
395.23	1499.11
395.43	1562.60
395.64	1583.08
395.85	1452.01
396.06	1497.07
396.26	1540.07
396.47	1400.81
396.68	1394.67
396.88	1566.70
397.09	1400.81
397.30	1538.02
397.50	1554.41
397.71	1554.41
397.92	1589.22
398.13	1529.83
398.33	1382.38
398.54	1542.12
398.75	1482.73
398.95	1538.02
399.16	1587.18
399.37	1468.39
399.57	1546.22
399.78	1525.74
399.99	1513.45
400.20	1595.37
400.40	1466.35
400.61	1439.72
400.82	1406.95
401.02	1529.83
401.23	1566.70
401.44	1427.43
401.64	1521.64
401.85	1474.54
402.06	1542.12
402.26	1538.02
402.47	1431.53
402.68	1646.57
402.88	1456.11
403.09	1578.98
403.30	1554.41
403.50	1449.96
403.71	1574.89
403.92	1525.74
404.12	1458.15
404.33	1499.11
404.54	1497.07
404.74	1513.45
404.95	1556.46
405.16	1488.87
405.36	1578.98
405.57	1462.25
405.78	1562.60
405.98	1482.73
406.19	1415.15
406.40	1488.87
406.60	1546.22
406.81	1335.28
407.02	1513.45
407.22	1464.30
407.43	1431.53
407.64	1464.30
407.84	1443.82
408.05	1497.07
408.26	1456.11
408.46	1538.02
408.67	1589.22
408.87	1503.21
409.08	1474.54
409.29	1611.75
409.49	1406.95
409.70	1624.04
409.91	1562.60
410.11	1472.49
410.32	1488.87
410.53	1447.91
410.73	1507.30
410.94	1472.49
411.14	1456.11
411.35	1587.18
411.56	1447.91
411.76	1630.18
411.97	1464.30
412.18	1515.50
412.38	1515.50
412.59	1435.63
412.79	1449.96
413.00	1546.22
413.21	1480.68
413.41	1523.69
413.62	1466.35
413.82	1554.41
414.03	1542.12
414.24	1544.17
414.44	1472.49
414.65	1460.20
414.86	1533.93
415.06	1597.42
415.27	1476.59
415.47	1505.26
415.68	1546.22
415.89	1492.97
416.09	1456.11
416.30	1480.68
416.50	1529.83
416.71	1566.70
416.92	1439.72
417.12	1452.01
417.33	1456.11
417.53	1357.80
417.74	1437.67
417.94	1480.68
418.15	1513.45
418.36	1439.72
418.56	1460.20
418.77	1546.22
418.97	1531.88
419.18	1513.45
419.39	1431.53
419.59	1529.83
419.80	1482.73
420.00	1505.26
420.21	1398.76
420.41	1460.20
420.62	1509.35
420.83	1531.88
421.03	1456.11
421.24	1464.30
421.44	1521.64
421.65	1538.02
421.85	1533.93
422.06	1415.15
422.27	1578.98
422.47	1529.83
422.68	1515.50
422.88	1597.42
423.09	1460.20
423.29	1554.41
423.50	1472.49
423.70	1531.88
423.91	1484.78
424.12	1441.77
424.32	1474.54
424.53	1447.91
424.73	1624.04
424.94	1513.45
425.14	1476.59
425.35	1570.79
425.55	1550.31
425.76	1574.89
425.96	1513.45
426.17	1490.92
426.37	1515.50
426.58	1531.88
426.79	1519.59
426.99	1540.07
427.20	1538.02
427.40	1531.88
427.61	1464.30
427.81	1554.41
428.02	1480.68
428.22	1501.16
428.43	1441.77
428.63	1433.58
428.84	1480.68
429.04	1406.95
429.25	1589.22
429.45	1562.60
429.66	1499.11
429.86	1482.73
430.07	1499.11
430.27	1468.39
430.48	1570.79
430.68	1480.68
430.89	1558.50
431.09	1472.49
431.30	1472.49
431.50	1597.42
431.71	1607.66
431.91	1507.30
432.12	1411.05
432.32	1562.60
432.53	1466.35
432.73	1515.50
432.94	1466.35
433.14	1482.73
433.35	1472.49
433.55	1523.69
433.76	1398.76
433.96	1505.26
434.17	1501.16
434.37	1488.87
434.58	1523.69
434.78	1558.50
434.99	1464.30
435.19	1447.91
435.40	1505.26
435.60	1472.49
435.81	1570.79
436.01	1472.49
436.22	1538.02
436.42	1564.65
436.63	1576.94
436.83	1402.86
437.04	1603.56
437.24	1443.82
437.45	1464.30
437.65	1480.68
437.86	1513.45
438.06	1513.45
438.26	1488.87
438.47	1482.73
438.67	1423.34
438.88	1466.35
439.08	1505.26
439.29	1538.02
439.49	1505.26
439.70	1497.07
439.90	1431.53
440.11	1546.22
440.31	1554.41
440.52	1482.73
440.72	1540.07
440.92	1480.68
441.13	1452.01
441.33	1488.87
441.54	1497.07
441.74	1499.11
441.95	1513.45
442.15	1591.27
442.36	1556.46
442.56	1554.41
442.76	1415.15
442.97	1402.86
443.17	1398.76
443.38	1550.31
443.58	1468.39
443.79	1439.72
443.99	1505.26
444.19	1509.35
444.40	1472.49
444.60	1499.11
444.81	1439.72
445.01	1562.60
445.22	1417.19
445.42	1505.26
445.62	1593.32
445.83	1464.30
446.03	1531.88
446.24	1531.88
446.44	1566.70
446.64	1472.49
446.85	1499.11
447.05	1570.79
447.26	1472.49
447.46	1505.26
447.67	1468.39
447.87	1476.59
448.07	1550.31
448.28	1482.73
448.48	1578.98
448.69	1472.49
448.89	1480.68
449.09	1456.11
449.30	1439.72
449.50	1431.53
449.71	1441.77
449.91	1482.73
450.11	1505.26
450.32	1439.72
450.52	1433.58
450.72	1449.96
450.93	1521.64
451.13	1542.12
451.34	1482.73
451.54	1497.07
451.74	1517.54
451.95	1523.69
452.15	1456.11
452.36	1521.64
452.56	1513.45
452.76	1505.26
452.97	1449.96
453.17	1515.50
453.37	1439.72
453.58	1466.35
453.78	1499.11
453.98	1538.02
454.19	1509.35
454.39	1464.30
454.60	1513.45
454.80	1581.03
455.00	1615.85
455.21	1472.49
455.41	1501.16
455.61	1501.16
455.82	1509.35
456.02	1406.95
456.22	1499.11
456.43	1484.78
456.63	1599.46
456.84	1497.07
457.04	1513.45
457.24	1449.96
457.45	1497.07
457.65	1515.50
457.85	1513.45
458.06	1464.30
458.26	1466.35
458.46	1482.73
458.67	1546.22
458.87	1619.94
