Comprimento	Intensity
178.13	1267.69
178.35	1267.69
178.57	1267.69
178.78	1294.32
179.00	1275.88
179.22	1509.35
179.44	1480.68
179.66	1488.87
179.87	1535.98
180.09	1550.31
180.31	1566.70
180.53	1509.35
180.75	1460.20
180.96	1433.58
181.18	1507.30
181.40	1433.58
181.62	1427.43
181.84	1546.22
182.05	1488.87
182.27	1460.20
182.49	1464.30
182.71	1431.53
182.92	1597.42
183.14	1523.69
183.36	1581.03
183.58	1492.97
183.80	1554.41
184.01	1482.73
184.23	1548.26
184.45	1564.65
184.67	1546.22
184.89	1509.35
185.10	1540.07
185.32	1570.79
185.54	1515.50
185.76	1538.02
185.97	1490.92
186.19	1513.45
186.41	1490.92
186.63	1521.64
186.84	1488.87
187.06	1583.08
187.28	1677.29
187.50	1398.76
187.72	1581.03
187.93	1466.35
188.15	1521.64
188.37	1505.26
188.59	1572.84
188.80	1652.71
189.02	1595.37
189.24	1466.35
189.46	1525.74
189.67	1548.26
189.89	1488.87
190.11	1468.39
190.33	1521.64
190.54	1525.74
190.76	1521.64
190.98	1447.91
191.20	1521.64
191.41	1529.83
191.63	1628.14
191.85	1472.49
192.07	1558.50
192.28	1505.26
192.50	1538.02
192.72	1521.64
192.94	1603.56
193.15	1542.12
193.37	1538.02
193.59	1669.09
193.81	1556.46
194.02	1456.11
194.24	1538.02
194.46	1497.07
194.67	1558.50
194.89	1531.88
195.11	1570.79
195.33	1562.60
195.54	1605.61
195.76	1517.54
195.98	1529.83
196.20	1499.11
196.41	1546.22
196.63	1574.89
196.85	1546.22
197.06	1484.78
197.28	1505.26
197.50	1482.73
197.72	1529.83
197.93	1472.49
198.15	1546.22
198.37	1548.26
198.58	1497.07
198.80	1501.16
199.02	1531.88
199.24	1480.68
199.45	1513.45
199.67	1445.87
199.89	1490.92
200.10	1468.39
200.32	1542.12
200.54	1546.22
200.76	1472.49
200.97	1587.18
201.19	1435.63
201.41	1513.45
201.62	1472.49
201.84	1562.60
202.06	1587.18
202.28	1517.54
202.49	1570.79
202.71	1570.79
202.93	1513.45
203.14	1490.92
203.36	1546.22
203.58	1474.54
203.79	1472.49
204.01	1542.12
204.23	1529.83
204.44	1607.66
204.66	1591.27
204.88	1497.07
205.10	1529.83
205.31	1423.34
205.53	1521.64
205.75	1531.88
205.96	1503.21
206.18	1538.02
206.40	1476.59
206.61	1431.53
206.83	1488.87
207.05	1470.44
207.26	1431.53
207.48	1523.69
207.70	1554.41
207.91	1529.83
208.13	1488.87
208.35	1441.77
208.56	1513.45
208.78	1521.64
209.00	1529.83
209.21	1554.41
209.43	1529.83
209.65	1556.46
209.86	1523.69
210.08	1540.07
210.30	1595.37
210.51	1517.54
210.73	1548.26
210.95	1452.01
211.16	1548.26
211.38	1531.88
211.60	1443.82
211.81	1546.22
212.03	1538.02
212.25	1525.74
212.46	1578.98
212.68	1597.42
212.90	1488.87
213.11	1513.45
213.33	1562.60
213.55	1476.59
213.76	1628.14
213.98	1474.54
214.20	1538.02
214.41	1507.30
214.63	1554.41
214.84	1607.66
215.06	1572.84
215.28	1499.11
215.49	1570.79
215.71	1628.14
215.93	1628.14
216.14	1497.07
216.36	1583.08
216.58	1495.02
216.79	1454.06
217.01	1505.26
217.22	1441.77
217.44	1744.87
217.66	1589.22
217.87	1558.50
218.09	1458.15
218.31	1415.15
218.52	1476.59
218.74	1554.41
218.95	1578.98
219.17	1398.76
219.39	1515.50
219.60	1589.22
219.82	1558.50
220.04	1585.13
220.25	1474.54
220.47	1587.18
220.68	1581.03
220.90	1490.92
221.12	1562.60
221.33	1431.53
221.55	1517.54
221.77	1480.68
221.98	1497.07
222.20	1619.94
222.41	1490.92
222.63	1525.74
222.85	1470.44
223.06	1554.41
223.28	1566.70
223.49	1458.15
223.71	1499.11
223.93	1554.41
224.14	1509.35
224.36	1595.37
224.57	1509.35
224.79	1513.45
225.01	1562.60
225.22	1515.50
225.44	1486.83
225.65	1521.64
225.87	1572.84
226.09	1488.87
226.30	1529.83
226.52	1449.96
226.73	1423.34
226.95	1576.94
227.17	1538.02
227.38	1458.15
227.60	1591.27
227.81	1540.07
228.03	1472.49
228.24	1533.93
228.46	1581.03
228.68	1464.30
228.89	1529.83
229.11	1439.72
229.32	1484.78
229.54	1423.34
229.75	1570.79
229.97	1564.65
230.19	1556.46
230.40	1480.68
230.62	1488.87
230.83	1540.07
231.05	1531.88
231.26	1542.12
231.48	1505.26
231.70	1603.56
231.91	1456.11
232.13	1562.60
232.34	1566.70
232.56	1482.73
232.77	1587.18
232.99	1456.11
233.21	1720.29
233.42	1464.30
233.64	1603.56
233.85	1521.64
234.07	1554.41
234.28	1525.74
234.50	1464.30
234.71	1548.26
234.93	1632.23
235.15	1492.97
235.36	1556.46
235.58	1497.07
235.79	1431.53
236.01	1488.87
236.22	1558.50
236.44	1574.89
236.65	1488.87
236.87	1554.41
237.08	1513.45
237.30	1488.87
237.52	1488.87
237.73	1523.69
237.95	1464.30
238.16	1460.20
238.38	1597.42
238.59	1497.07
238.81	1554.41
239.02	1497.07
239.24	1482.73
239.45	1529.83
239.67	1585.13
239.88	1456.11
240.10	1603.56
240.31	1394.67
240.53	1501.16
240.74	1566.70
240.96	1597.42
241.18	1570.79
241.39	1488.87
241.61	1546.22
241.82	1468.39
242.04	1533.93
242.25	1636.33
242.47	1529.83
242.68	1546.22
242.90	1578.98
243.11	1521.64
243.33	1505.26
243.54	1695.72
243.76	1415.15
243.97	1619.94
244.19	1466.35
244.40	1501.16
244.62	1474.54
244.83	1476.59
245.05	1439.72
245.26	1374.19
245.48	1531.88
245.69	1570.79
245.91	1513.45
246.12	1472.49
246.34	1546.22
246.55	1458.15
246.77	1456.11
246.98	1540.07
247.20	1466.35
247.41	1548.26
247.63	1529.83
247.84	1550.31
248.06	1640.42
248.27	1441.77
248.49	1501.16
248.70	1447.91
248.92	1482.73
249.13	1439.72
249.35	1505.26
249.56	1488.87
249.78	1402.86
249.99	1540.07
250.21	1587.18
250.42	1472.49
250.64	1513.45
250.85	1562.60
251.06	1630.18
251.28	1464.30
251.49	1513.45
251.71	1490.92
251.92	1476.59
252.14	1603.56
252.35	1499.11
252.57	1572.84
252.78	1546.22
253.00	1513.45
253.21	1427.43
253.43	1480.68
253.64	1589.22
253.86	1482.73
254.07	1423.34
254.28	1439.72
254.50	1564.65
254.71	1558.50
254.93	1480.68
255.14	1505.26
255.36	1566.70
255.57	1542.12
255.79	1476.59
256.00	1505.26
256.22	1513.45
256.43	1554.41
256.64	1554.41
256.86	1556.46
257.07	1460.20
257.29	1531.88
257.50	1476.59
257.72	1474.54
257.93	1521.64
258.15	1607.66
258.36	1490.92
258.57	1529.83
258.79	1566.70
259.00	1587.18
259.22	1497.07
259.43	1497.07
259.65	1542.12
259.86	1513.45
260.08	1472.49
260.29	1726.44
260.50	1466.35
260.72	1964.00
260.93	1439.72
261.15	1464.30
261.36	1464.30
261.58	1548.26
261.79	1509.35
262.00	1538.02
262.22	1665.00
262.43	1513.45
262.65	1466.35
262.86	1564.65
263.07	1595.37
263.29	1605.61
263.50	1521.64
263.72	1546.22
263.93	1542.12
264.15	1538.02
264.36	1406.95
264.57	1490.92
264.79	1554.41
265.00	1615.85
265.22	1499.11
265.43	1515.50
265.64	1497.07
265.86	1497.07
266.07	1499.11
266.29	1521.64
266.50	1452.01
266.71	1554.41
266.93	1521.64
267.14	1540.07
267.36	1562.60
267.57	1548.26
267.78	1497.07
268.00	1538.02
268.21	1595.37
268.43	1538.02
268.64	1513.45
268.85	1441.77
269.07	1488.87
269.28	1570.79
269.50	1441.77
269.71	1587.18
269.92	1447.91
270.14	1492.97
270.35	1390.57
270.56	1558.50
270.78	1546.22
270.99	1538.02
271.21	1476.59
271.42	1581.03
271.63	1581.03
271.85	1538.02
272.06	1456.11
272.27	1505.26
272.49	1591.27
272.70	1556.46
272.92	1595.37
273.13	1546.22
273.34	1599.46
273.56	1488.87
273.77	1538.02
273.98	1464.30
274.20	1529.83
274.41	1521.64
274.63	1490.92
274.84	1484.78
275.05	1505.26
275.27	1507.30
275.48	1540.07
275.69	1488.87
275.91	1464.30
276.12	1505.26
276.33	1458.15
276.55	1564.65
276.76	1554.41
276.97	1652.71
277.19	1474.54
277.40	1484.78
277.61	1546.22
277.83	1505.26
278.04	1525.74
278.26	1492.97
278.47	1544.17
278.68	1675.24
278.90	1529.83
279.11	1507.30
279.32	1513.45
279.54	1581.03
279.75	1521.64
279.96	1548.26
280.18	1611.75
280.39	1611.75
280.60	1480.68
280.82	1621.99
281.03	1529.83
281.24	1587.18
281.46	1595.37
281.67	1578.98
281.88	1505.26
282.10	1562.60
282.31	1505.26
282.52	1531.88
282.74	1406.95
282.95	1591.27
283.16	1505.26
283.37	1497.07
283.59	1484.78
283.80	1523.69
284.01	1675.24
284.23	1507.30
284.44	1515.50
284.65	1621.99
284.87	1507.30
285.08	1581.03
285.29	1525.74
285.51	1538.02
285.72	1564.65
285.93	1591.27
286.15	1589.22
286.36	1431.53
286.57	1531.88
286.78	1523.69
287.00	1507.30
287.21	1538.02
287.42	1515.50
287.64	1515.50
287.85	1587.18
288.06	1564.65
288.28	1488.87
288.49	1464.30
288.70	1472.49
288.91	1480.68
289.13	1710.05
289.34	1554.41
289.55	1460.20
289.77	1507.30
289.98	1587.18
290.19	1556.46
290.40	1431.53
290.62	1466.35
290.83	1464.30
291.04	1511.40
291.26	1480.68
291.47	1529.83
291.68	1480.68
291.89	1447.91
292.11	1673.19
292.32	1472.49
292.53	1689.57
292.74	1558.50
292.96	1431.53
293.17	1505.26
293.38	1554.41
293.60	1578.98
293.81	1521.64
294.02	1447.91
294.23	1558.50
294.45	1587.18
294.66	1517.54
294.87	1660.90
295.08	1480.68
295.30	1660.90
295.51	1505.26
295.72	1656.81
295.93	1523.69
296.15	1611.75
296.36	1632.23
296.57	1619.94
296.78	1578.98
297.00	1474.54
297.21	1515.50
297.42	1548.26
297.63	1507.30
297.85	1578.98
298.06	1517.54
298.27	1558.50
298.48	1490.92
298.70	1515.50
298.91	1710.05
299.12	1460.20
299.33	1523.69
299.55	1460.20
299.76	1480.68
299.97	1531.88
300.18	1566.70
300.40	1449.96
300.61	1443.82
300.82	1578.98
301.03	1515.50
301.24	1482.73
301.46	1488.87
301.67	1480.68
301.88	1474.54
302.09	1507.30
302.31	1490.92
302.52	1566.70
302.73	1595.37
302.94	1535.98
303.15	1458.15
303.37	1449.96
303.58	1447.91
303.79	1499.11
304.00	1597.42
304.22	1497.07
304.43	1538.02
304.64	1505.26
304.85	1538.02
305.06	1554.41
305.28	1521.64
305.49	1603.56
305.70	1562.60
305.91	1482.73
306.12	1574.89
306.34	1492.97
306.55	1521.64
306.76	1552.36
306.97	1599.46
307.18	1513.45
307.40	1490.92
307.61	1525.74
307.82	1488.87
308.03	1517.54
308.24	1558.50
308.46	1513.45
308.67	1464.30
308.88	1529.83
309.09	1613.80
309.30	1554.41
309.52	1474.54
309.73	1597.42
309.94	1398.76
310.15	1515.50
310.36	1529.83
310.57	1476.59
310.79	1517.54
311.00	1507.30
311.21	1488.87
311.42	1562.60
311.63	1556.46
311.85	1458.15
312.06	1476.59
312.27	1538.02
312.48	1562.60
312.69	1482.73
312.90	1595.37
313.12	1499.11
313.33	1525.74
313.54	1607.66
313.75	1499.11
313.96	1554.41
314.17	1464.30
314.39	1456.11
314.60	1529.83
314.81	1554.41
315.02	1476.59
315.23	1497.07
315.44	1519.59
315.65	1562.60
315.87	1488.87
316.08	1538.02
316.29	1509.35
316.50	1480.68
316.71	1578.98
316.92	1474.54
317.14	1429.48
317.35	1556.46
317.56	1495.02
317.77	1578.98
317.98	1513.45
318.19	1529.83
318.40	1443.82
318.62	1636.33
318.83	1531.88
319.04	1628.14
319.25	1546.22
319.46	1646.57
319.67	1490.92
319.88	1578.98
320.09	1538.02
320.31	1535.98
320.52	1581.03
320.73	1499.11
320.94	1484.78
321.15	1433.58
321.36	1515.50
321.57	1488.87
321.78	1466.35
322.00	1525.74
322.21	1570.79
322.42	1452.01
322.63	1578.98
322.84	1480.68
323.05	1529.83
323.26	1456.11
323.47	1499.11
323.69	1464.30
323.90	1505.26
324.11	1402.86
324.32	1542.12
324.53	1521.64
324.74	1509.35
324.95	1566.70
325.16	1542.12
325.37	1538.02
325.59	1427.43
325.80	1513.45
326.01	1501.16
326.22	1581.03
326.43	1531.88
326.64	1554.41
326.85	1517.54
327.06	1507.30
327.27	1513.45
327.48	1576.94
327.69	1646.57
327.91	1513.45
328.12	1562.60
328.33	1515.50
328.54	1482.73
328.75	1562.60
328.96	1519.59
329.17	1449.96
329.38	1587.18
329.59	1538.02
329.80	1873.89
330.01	1630.18
330.23	1603.56
330.44	1572.84
330.65	1521.64
330.86	1540.07
331.07	1542.12
331.28	1562.60
331.49	1513.45
331.70	1480.68
331.91	1464.30
332.12	1480.68
332.33	1499.11
332.54	1595.37
332.75	1564.65
332.96	1480.68
333.17	1480.68
333.39	1562.60
333.60	1587.18
333.81	1488.87
334.02	1525.74
334.23	1497.07
334.44	1449.96
334.65	1513.45
334.86	1566.70
335.07	1533.93
335.28	1488.87
335.49	1599.46
335.70	1513.45
335.91	1472.49
336.12	1507.30
336.33	1673.19
336.54	1525.74
336.75	1529.83
336.96	1499.11
337.17	1529.83
337.39	1464.30
337.60	1595.37
337.81	1621.99
338.02	1570.79
338.23	1482.73
338.44	1456.11
338.65	1521.64
338.86	1505.26
339.07	1628.14
339.28	1482.73
339.49	1603.56
339.70	1505.26
339.91	1521.64
340.12	1531.88
340.33	1542.12
340.54	1490.92
340.75	1572.84
340.96	1554.41
341.17	1538.02
341.38	1525.74
341.59	1628.14
341.80	1558.50
342.01	1464.30
342.22	1525.74
342.43	1497.07
342.64	1505.26
342.85	1599.46
343.06	1513.45
343.27	1521.64
343.48	1554.41
343.69	1439.72
343.90	1439.72
344.11	1529.83
344.32	1492.97
344.53	1505.26
344.74	1490.92
344.95	1447.91
345.16	1611.75
345.37	1513.45
345.58	1595.37
345.79	1556.46
346.00	1597.42
346.21	1482.73
346.42	1497.07
346.63	1529.83
346.84	1554.41
347.05	1538.02
347.26	1392.62
347.47	1546.22
347.68	1529.83
347.89	1495.02
348.10	1480.68
348.31	1554.41
348.52	1464.30
348.73	1554.41
348.94	1525.74
349.15	1687.53
349.36	1452.01
349.57	1386.47
349.78	1523.69
349.99	1538.02
350.20	1548.26
350.41	1497.07
350.62	1439.72
350.83	1564.65
351.04	1497.07
351.25	1470.44
351.46	1521.64
351.67	1482.73
351.88	1390.57
352.09	1535.98
352.30	1546.22
352.50	1570.79
352.71	1503.21
352.92	1480.68
353.13	1581.03
353.34	1476.59
353.55	1546.22
353.76	1419.24
353.97	1562.60
354.18	1546.22
354.39	1581.03
354.60	1644.52
354.81	1513.45
355.02	1517.54
355.23	1578.98
355.44	1456.11
355.65	1466.35
355.86	1554.41
356.07	1546.22
356.28	1499.11
356.48	1554.41
356.69	1513.45
356.90	1521.64
357.11	1546.22
357.32	1513.45
357.53	1538.02
357.74	1570.79
357.95	1546.22
358.16	1497.07
358.37	1509.35
358.58	1540.07
358.79	1456.11
359.00	1558.50
359.21	1433.58
359.41	1578.98
359.62	1587.18
359.83	1558.50
360.04	1546.22
360.25	1554.41
360.46	1546.22
360.67	1482.73
360.88	1497.07
361.09	1556.46
361.30	1460.20
361.51	1564.65
361.72	1495.02
361.92	1636.33
362.13	1441.77
362.34	1482.73
362.55	1591.27
362.76	1433.58
362.97	1550.31
363.18	1540.07
363.39	1523.69
363.60	1538.02
363.81	1546.22
364.01	1611.75
364.22	1538.02
364.43	1578.98
364.64	1529.83
364.85	1587.18
365.06	1513.45
365.27	1505.26
365.48	1531.88
365.69	1554.41
365.89	1529.83
366.10	1603.56
366.31	1447.91
366.52	1548.26
366.73	1613.80
366.94	1710.05
367.15	1497.07
367.36	1488.87
367.57	1646.57
367.77	1603.56
367.98	1677.29
368.19	1538.02
368.40	1546.22
368.61	1619.94
368.82	1474.54
369.03	1599.46
369.23	1660.90
369.44	1423.34
369.65	1501.16
369.86	1509.35
370.07	1517.54
370.28	1581.03
370.49	1517.54
370.70	1570.79
370.90	1538.02
371.11	1513.45
371.32	1533.93
371.53	1587.18
371.74	1480.68
371.95	1488.87
372.16	1423.34
372.36	1554.41
372.57	1587.18
372.78	1505.26
372.99	1458.15
373.20	1492.97
373.41	1380.33
373.61	1562.60
373.82	1533.93
374.03	1425.39
374.24	1523.69
374.45	1546.22
374.66	1507.30
374.86	1556.46
375.07	1546.22
375.28	1497.07
375.49	1484.78
375.70	1447.91
375.91	1505.26
376.11	1521.64
376.32	1544.17
376.53	1529.83
376.74	1564.65
376.95	1996.77
377.16	1570.79
377.36	1472.49
377.57	1628.14
377.78	1597.42
377.99	1603.56
378.20	1507.30
378.40	1587.18
378.61	1572.84
378.82	1581.03
379.03	1595.37
379.24	1587.18
379.45	1415.15
379.65	1456.11
379.86	1466.35
380.07	1513.45
380.28	1525.74
380.49	1562.60
380.69	1605.61
380.90	1646.57
381.11	1521.64
381.32	1497.07
381.53	1689.57
381.73	1552.36
381.94	1538.02
382.15	1462.25
382.36	1513.45
382.57	1556.46
382.77	1464.30
382.98	1529.83
383.19	1499.11
383.40	1595.37
383.60	1597.42
383.81	1578.98
384.02	1562.60
384.23	1570.79
384.44	1521.64
384.64	1484.78
384.85	1556.46
385.06	1538.02
385.27	1521.64
385.48	1525.74
385.68	1497.07
385.89	1464.30
386.10	1554.41
386.31	1517.54
386.51	1529.83
386.72	1480.68
386.93	1583.08
387.14	1562.60
387.34	1554.41
387.55	1464.30
387.76	1533.93
387.97	1482.73
388.17	1564.65
388.38	1529.83
388.59	1548.26
388.80	1443.82
389.01	1482.73
389.21	1595.37
389.42	1562.60
389.63	1554.41
389.84	1460.20
390.04	1521.64
390.25	1548.26
390.46	1578.98
390.67	1540.07
390.87	1488.87
391.08	1578.98
391.29	1499.11
391.49	1509.35
391.70	1529.83
391.91	1576.94
392.12	1499.11
392.32	1466.35
392.53	1619.94
392.74	1546.22
392.95	1456.11
393.15	1607.66
393.36	1538.02
393.57	1546.22
393.78	1546.22
393.98	1570.79
394.19	1521.64
394.40	1693.67
394.60	1636.33
394.81	1525.74
395.02	1415.15
395.23	1488.87
395.43	1525.74
395.64	1638.38
395.85	1484.78
396.06	1517.54
396.26	1587.18
396.47	1474.54
396.68	1464.30
396.88	1558.50
397.09	1499.11
397.30	1605.61
397.50	1560.55
397.71	1572.84
397.92	1595.37
398.13	1581.03
398.33	1474.54
398.54	1613.80
398.75	1472.49
398.95	1570.79
399.16	1568.74
399.37	1513.45
399.57	1521.64
399.78	1595.37
399.99	1542.12
400.20	1687.53
400.40	1550.31
400.61	1505.26
400.82	1505.26
401.02	1572.84
401.23	1583.08
401.44	1482.73
401.64	1603.56
401.85	1611.75
402.06	1546.22
402.26	1505.26
402.47	1523.69
402.68	1677.29
402.88	1423.34
403.09	1619.94
403.30	1562.60
403.50	1480.68
403.71	1669.09
403.92	1480.68
404.12	1480.68
404.33	1587.18
404.54	1591.27
404.74	1546.22
404.95	1654.76
405.16	1554.41
405.36	1595.37
405.57	1546.22
405.78	1578.98
405.98	1529.83
406.19	1472.49
406.40	1628.14
406.60	1599.46
406.81	1525.74
407.02	1538.02
407.22	1517.54
407.43	1472.49
407.64	1554.41
407.84	1488.87
408.05	1587.18
408.26	1566.70
408.46	1673.19
408.67	1710.05
408.87	1513.45
409.08	1550.31
409.29	1685.48
409.49	1513.45
409.70	1603.56
409.91	1656.81
410.11	1619.94
410.32	1587.18
410.53	1533.93
410.73	1611.75
410.94	1652.71
411.14	1581.03
411.35	1613.80
411.56	1699.81
411.76	1767.40
411.97	1595.37
412.18	1628.14
412.38	1591.27
412.59	1660.90
412.79	1607.66
413.00	1712.10
413.21	1630.18
413.41	1669.09
413.62	1609.70
413.82	1687.53
414.03	1710.05
414.24	1695.72
414.44	1679.33
414.65	1710.05
414.86	1734.63
415.06	1845.22
415.27	1695.72
415.47	1802.21
415.68	1775.59
415.89	1767.40
416.09	1751.01
416.30	1718.25
416.50	1818.60
416.71	1972.19
416.92	1851.36
417.12	1955.81
417.33	1882.08
417.53	1845.22
417.74	1875.94
417.94	1957.86
418.15	2004.96
418.36	1877.99
418.56	1822.69
418.77	1931.23
418.97	2013.15
419.18	2054.11
419.39	1914.85
419.59	2015.20
419.80	1957.86
420.00	2009.06
420.21	1947.62
420.41	2039.78
420.62	2244.57
420.83	2023.39
421.03	2144.22
421.24	2205.66
421.44	2154.46
421.65	2168.80
421.85	2234.33
422.06	2127.84
422.27	2189.28
422.47	2211.81
422.68	2308.06
422.88	2303.96
423.09	2269.15
423.29	2334.68
423.50	2422.75
423.70	2406.36
423.91	2398.17
424.12	2408.41
424.32	2408.41
424.53	2506.71
424.73	2566.10
424.94	2521.05
425.14	2490.33
425.35	2594.78
425.55	2652.12
425.76	2670.55
425.96	2623.45
426.17	2602.97
426.37	2744.28
426.58	2703.32
426.79	2750.42
426.99	2867.16
427.20	2807.77
427.40	2883.54
427.61	2852.82
427.81	2930.64
428.02	2967.51
428.22	2957.27
428.43	3069.91
428.63	3020.75
428.84	3143.63
429.04	3102.67
429.25	3340.24
429.45	3274.70
429.66	3219.41
429.86	3325.90
430.07	3299.28
430.27	3325.90
430.48	3487.69
430.68	3514.31
430.89	3639.24
431.09	3688.39
431.30	3547.08
431.50	3817.41
431.71	3897.28
431.91	3921.86
432.12	3889.09
432.32	3897.28
432.53	4085.70
432.73	4069.31
432.94	4093.89
433.14	4229.06
433.35	4298.69
433.55	4276.16
433.76	4358.08
433.96	4622.27
434.17	4609.98
434.37	4782.01
434.58	4655.03
434.78	4937.65
434.99	5019.57
435.19	4972.47
435.40	5101.49
435.60	5226.42
435.81	5398.45
436.01	5437.36
436.22	5724.07
436.42	5470.12
436.63	5511.08
436.83	5830.57
437.04	5988.26
437.24	5855.14
437.45	5916.58
437.65	5781.42
437.86	6289.31
438.06	6227.87
438.26	6473.63
438.47	6358.94
438.67	6621.08
438.88	6635.42
439.08	6762.39
439.29	6977.43
439.49	7036.82
439.70	7231.38
439.90	7231.38
440.11	7526.29
440.31	7567.24
440.52	7575.44
440.72	7894.92
440.92	7804.81
441.13	7837.58
441.33	8357.76
441.54	8705.92
441.74	8478.59
441.95	8480.64
442.15	9084.79
442.36	8927.10
442.56	9457.52
442.76	9553.77
442.97	9535.34
443.17	9584.49
443.38	10049.38
443.58	9754.48
443.79	10028.90
443.99	10504.03
444.19	10999.64
444.40	10987.35
444.60	11016.02
444.81	11069.27
445.01	11564.88
445.22	11220.82
445.42	11904.84
445.62	12203.85
445.83	12515.14
446.03	12490.56
446.24	12912.44
446.44	13227.83
446.64	13432.63
446.85	12963.64
447.05	13817.65
447.26	14092.07
447.46	14221.10
447.67	14489.38
447.87	14714.66
448.07	15660.82
448.28	15435.54
448.48	15257.37
448.69	15212.31
448.89	15869.71
449.09	16105.23
449.30	16355.08
449.50	17024.76
449.71	16705.28
449.91	17731.31
450.11	17204.99
450.32	17293.05
450.52	17409.78
450.72	18210.54
450.93	18274.03
451.13	18589.41
451.34	18956.00
451.54	19089.12
451.74	18777.83
451.95	18630.37
452.15	18650.85
452.36	18908.90
452.56	20192.97
452.76	19097.31
452.97	19670.74
453.17	20674.24
453.37	19666.64
453.58	19939.02
453.78	20584.13
453.98	20094.67
454.19	19605.20
454.39	19390.17
454.60	20127.44
454.80	19695.32
455.00	19965.65
455.21	18925.28
455.41	20287.18
455.61	19310.30
455.82	19250.91
456.02	18511.59
456.22	18609.89
456.43	18413.29
456.63	18986.72
456.84	19220.19
457.04	18743.01
457.24	17514.23
457.45	18302.70
457.65	18544.36
457.85	17819.38
458.06	17370.87
